'sample interval','PLETH','II'
'0.008 sec','mV','mV'
146001,0.07050000,0.03900000
146002,0.12700000,0.05550000
146003,0.19950000,0.06100000
146004,0.27800000,0.07450000
146005,0.36500000,0.07200000
146006,0.45150000,0.08850000
146007,0.54000000,0.08000000
146008,0.61900000,0.09650000
146009,0.69150000,0.08850000
146010,0.75200000,0.09950000
146011,0.79800000,0.08000000
146012,0.83850000,0.08550000
146013,0.86050000,0.06900000
146014,0.87700000,0.06650000
146015,0.88100000,0.05000000
146016,0.87500000,0.04700000
146017,0.86050000,0.03350000
146018,0.84250000,0.03050000
146019,0.81450000,0.02500000
146020,0.78000000,0.01950000
146021,0.74200000,0.01700000
146022,0.70150000,0.01150000
146023,0.65700000,0.01150000
146024,0.60700000,0.00600000
146025,0.55850000,0.01150000
146026,0.50600000,0.00850000
146027,0.45350000,0.01700000
146028,0.39700000,0.00600000
146029,0.34250000,0.01950000
146030,0.28850000,0.00850000
146031,0.23000000,0.01400000
146032,0.17550000,0.00350000
146033,0.12300000,0.01700000
146034,0.06850000,0.01150000
146035,0.01600000,0.02250000
146036,-0.03200000,0.01950000
146037,-0.07650000,0.03050000
146038,-0.12100000,0.01950000
146039,-0.15500000,0.03900000
146040,-0.18950000,0.03350000
146041,-0.21750000,0.03900000
146042,-0.24200000,0.03050000
146043,-0.26000000,0.03900000
146044,-0.27400000,0.03900000
146045,-0.28200000,0.03350000
146046,-0.29000000,0.01950000
146047,-0.29850000,0.00600000
146048,-0.30250000,0.00350000
146049,-0.30450000,0.00100000
146050,-0.30450000,0.00100000
146051,-0.30650000,0.00100000
146052,-0.30850000,0.00100000
146053,-0.31250000,0.00100000
146054,-0.31050000,0.00100000
146055,-0.31250000,0.00100000
146056,-0.31450000,0.02500000
146057,-0.31450000,0.05250000
146058,-0.31650000,0.06100000
146059,-0.31850000,-0.01250000
146060,-0.32050000,-0.07300000
146061,-0.32250000,-0.18250000
146062,-0.32450000,-0.27600000
146063,-0.32650000,-0.33050000
146064,-0.33050000,-0.30600000
146065,-0.33250000,-0.27900000
146066,-0.33650000,-0.25950000
146067,-0.34050000,-0.26800000
146068,-0.34250000,-0.25700000
146069,-0.34650000,-0.23200000
146070,-0.34850000,-0.15800000
146071,-0.35050000,-0.08150000
146072,-0.35250000,-0.02650000
146073,-0.35250000,0.00100000
146074,-0.35450000,0.00100000
146075,-0.35450000,0.00350000
146076,-0.35850000,0.00100000
146077,-0.35650000,0.00600000
146078,-0.36050000,0.00350000
146079,-0.36500000,0.01150000
146080,-0.36500000,0.00100000
146081,-0.37100000,0.01150000
146082,-0.37300000,0.00600000
146083,-0.37700000,0.01700000
146084,-0.37900000,0.01150000
146085,-0.37900000,0.02250000
146086,-0.37700000,0.01700000
146087,-0.36700000,0.03050000
146088,-0.34850000,0.02500000
146089,-0.32250000,0.04150000
146090,-0.28000000,0.03900000
146091,-0.22950000,0.05550000
146092,-0.16500000,0.05550000
146093,-0.09050000,0.06650000
146094,-0.00600000,0.07200000
146095,0.07850000,0.07750000
146096,0.16750000,0.08300000
146097,0.25400000,0.08850000
146098,0.32850000,0.09650000
146099,0.40100000,0.09400000
146100,0.45750000,0.09400000
146101,0.50400000,0.08850000
146102,0.53800000,0.08300000
146103,0.56250000,0.06650000
146104,0.57450000,0.06650000
146105,0.57650000,0.05000000
146106,0.57250000,0.05000000
146107,0.56250000,0.03350000
146108,0.54450000,0.03050000
146109,0.52000000,0.01700000
146110,0.49400000,0.02250000
146111,0.46150000,0.01150000
146112,0.42750000,0.02250000
146113,0.38900000,0.01150000
146114,0.34650000,0.01400000
146115,0.30250000,0.00600000
146116,0.25600000,0.01700000
146117,0.20750000,0.00600000
146118,0.15950000,0.01150000
146119,0.10900000,0.01150000
146120,0.05850000,0.00850000
146121,0.00800000,0.00850000
146122,-0.03800000,0.00600000
146123,-0.08450000,0.01150000
146124,-0.12900000,0.01150000
146125,-0.17150000,0.01700000
146126,-0.20550000,0.01150000
146127,-0.24200000,0.02250000
146128,-0.27000000,0.01950000
146129,-0.29600000,0.03350000
146130,-0.32250000,0.03600000
146131,-0.34050000,0.04150000
146132,-0.35450000,0.02800000
146133,-0.36900000,0.04150000
146134,-0.37700000,0.03600000
146135,-0.38700000,0.04150000
146136,-0.38900000,0.01950000
146137,-0.39100000,0.01950000
146138,-0.39300000,0.00100000
146139,-0.39100000,0.00100000
146140,-0.38900000,0.00100000
146141,-0.38700000,0.00100000
146142,-0.38500000,0.00100000
146143,-0.38300000,0.00100000
146144,-0.37900000,0.00100000
146145,-0.37700000,0.00100000
146146,-0.37500000,0.00100000
146147,-0.37100000,0.04450000
146148,-0.36900000,0.06900000
146149,-0.36700000,0.01950000
146150,-0.36700000,-0.04550000
146151,-0.36500000,-0.13050000
146152,-0.36700000,-0.23750000
146153,-0.36500000,-0.30900000
146154,-0.36700000,-0.31700000
146155,-0.36700000,-0.29000000
146156,-0.37100000,-0.25400000
146157,-0.37300000,-0.26500000
146158,-0.37100000,-0.25150000
146159,-0.37300000,-0.25150000
146160,-0.37500000,-0.18800000
146161,-0.37500000,-0.12000000
146162,-0.37500000,-0.04850000
146163,-0.37500000,-0.01550000
146164,-0.37500000,0.00100000
146165,-0.37500000,0.00350000
146166,-0.37300000,0.01400000
146167,-0.37300000,0.00350000
146168,-0.37500000,0.01150000
146169,-0.37700000,0.01150000
146170,-0.37700000,0.00600000
146171,-0.37900000,0.00600000
146172,-0.38500000,0.01700000
146173,-0.38700000,0.01700000
146174,-0.38700000,0.02500000
146175,-0.39100000,0.02800000
146176,-0.39100000,0.02800000
146177,-0.38900000,0.03050000
146178,-0.37700000,0.03050000
146179,-0.35850000,0.03900000
146180,-0.32850000,0.03600000
146181,-0.28800000,0.05000000
146182,-0.23400000,0.04150000
146183,-0.16700000,0.07200000
146184,-0.09050000,0.07200000
146185,-0.00600000,0.08550000
146186,0.08050000,0.08000000
146187,0.16750000,0.09100000
146188,0.25200000,0.08300000
146189,0.33050000,0.09950000
146190,0.39700000,0.11050000
146191,0.45550000,0.12700000
146192,0.49800000,0.11050000
146193,0.53200000,0.07750000
146194,0.55050000,0.06900000
146195,0.56450000,0.06100000
146196,0.56450000,0.03900000
146197,0.56050000,0.03050000
146198,0.54850000,0.04450000
146199,0.52800000,0.03350000
146200,0.50000000,0.01700000
146201,0.46750000,0.02500000
146202,0.42950000,0.03050000
146203,0.38900000,0.00600000
146204,0.34250000,0.01700000
146205,0.29650000,0.01150000
146206,0.24600000,0.01400000
146207,0.19550000,0.00600000
146208,0.13900000,0.02500000
146209,0.08650000,0.01400000
146210,0.03250000,0.02250000
146211,-0.02400000,0.01950000
146212,-0.07850000,0.00600000
146213,-0.12900000,0.00100000
146214,-0.17950000,0.01150000
146215,-0.22750000,0.00350000
146216,-0.27200000,0.02250000
146217,-0.31450000,0.01700000
146218,-0.35250000,0.03600000
146219,-0.38700000,0.03350000
146220,-0.41700000,0.04700000
146221,-0.44750000,0.03050000
146222,-0.46750000,0.03900000
146223,-0.48950000,0.03900000
146224,-0.50400000,0.01950000
146225,-0.52000000,0.03600000
146226,-0.53000000,0.03350000
146227,-0.53600000,0.01700000
146228,-0.54400000,0.00600000
146229,-0.54600000,0.00600000
146230,-0.54800000,0.00100000
146231,-0.55000000,-0.00150000
146232,-0.54600000,-0.01800000
146233,-0.54400000,-0.00450000
146234,-0.53800000,-0.01800000
146235,-0.53400000,-0.00150000
146236,-0.52600000,-0.00700000
146237,-0.52000000,0.00350000
146238,-0.48300000,0.03900000
146239,-0.47850000,0.06350000
146240,-0.47550000,-0.03200000
146241,-0.47100000,-0.09800000
146242,-0.46650000,-0.19650000
146243,-0.46300000,-0.26250000
146244,-0.45700000,-0.35800000
146245,-0.45100000,-0.35800000
146246,-0.44500000,-0.30350000
146247,-0.44050000,-0.30100000
146248,-0.43450000,-0.31400000
146249,-0.43150000,-0.31400000
146250,-0.42650000,-0.27350000
146251,-0.42200000,-0.21300000
146252,-0.41750000,-0.14150000
146253,-0.41450000,-0.09800000
146254,-0.41000000,-0.05100000
146255,-0.40700000,-0.04000000
146256,-0.40250000,-0.02350000
146257,-0.39600000,-0.04300000
146258,-0.39150000,-0.03750000
146259,-0.38700000,-0.03200000
146260,-0.38100000,-0.04300000
146261,-0.37650000,-0.04300000
146262,-0.37200000,-0.03450000
146263,-0.36750000,-0.05100000
146264,-0.36400000,-0.02100000
146265,-0.35800000,-0.04000000
146266,-0.35050000,-0.01000000
146267,-0.34300000,-0.03750000
146268,-0.32900000,-0.04000000
146269,-0.31100000,-0.02650000
146270,-0.28200000,-0.03200000
146271,-0.24700000,-0.02350000
146272,-0.19650000,-0.00450000
146273,-0.14200000,-0.01000000
146274,-0.07300000,-0.00450000
146275,0.00300000,0.02500000
146276,0.08050000,0.00100000
146277,0.16450000,0.01400000
146278,0.24500000,0.03050000
146279,0.32450000,0.00900000
146280,0.39600000,0.01700000
146281,0.45700000,0.01700000
146282,0.51000000,0.00350000
146283,0.55450000,0.02250000
146284,0.58800000,0.00600000
146285,0.61400000,0.00100000
146286,0.62900000,-0.01250000
146287,0.63800000,-0.02100000
146288,0.64100000,-0.01800000
146289,0.63950000,-0.01000000
146290,0.63050000,-0.04850000
146291,0.61850000,-0.04300000
146292,0.60000000,-0.02650000
146293,0.57750000,-0.05100000
146294,0.55150000,-0.07300000
146295,0.52100000,-0.06750000
146296,0.48600000,-0.06200000
146297,0.44800000,-0.04850000
146298,0.40800000,-0.05400000
146299,0.36250000,-0.05950000
146300,0.31700000,-0.05400000
146301,0.26800000,-0.05400000
146302,0.29400000,-0.03450000
146303,0.23650000,-0.04550000
146304,0.17850000,-0.04000000
146305,0.12400000,-0.05950000
146306,0.07150000,-0.05400000
146307,0.01900000,-0.04850000
146308,-0.03050000,-0.04000000
146309,-0.07300000,-0.02100000
146310,-0.11550000,-0.03450000
146311,-0.15100000,-0.04300000
146312,-0.18500000,-0.02100000
146313,-0.21400000,-0.02650000
146314,-0.23950000,-0.02650000
146315,-0.26000000,-0.02100000
146316,-0.27850000,-0.02100000
146317,-0.29050000,-0.05650000
146318,-0.30050000,-0.06500000
146319,-0.31100000,-0.05650000
146320,-0.31750000,-0.07600000
146321,-0.32100000,-0.08700000
146322,-0.32600000,-0.08150000
146323,-0.32950000,-0.07050000
146324,-0.33150000,-0.08400000
146325,-0.33650000,-0.09250000
146326,-0.34000000,-0.09250000
146327,-0.34500000,-0.06500000
146328,-0.34850000,-0.02650000
146329,-0.35500000,-0.00150000
146330,-0.36350000,-0.05400000
146331,-0.37200000,-0.13350000
146332,-0.38050000,-0.19350000
146333,-0.39050000,-0.29800000
146334,-0.40100000,-0.39400000
146335,-0.40750000,-0.40750000
146336,-0.41800000,-0.36650000
146337,-0.42650000,-0.33350000
146338,-0.43500000,-0.35800000
146339,-0.44000000,-0.35550000
146340,-0.44700000,-0.33600000
146341,-0.45000000,-0.25950000
146342,-0.45350000,-0.18250000
146343,-0.45550000,-0.12500000
146344,-0.45850000,-0.08700000
146345,-0.46050000,-0.07300000
146346,-0.46200000,-0.04850000
146347,-0.46400000,-0.07300000
146348,-0.46550000,-0.06750000
146349,-0.46700000,-0.05950000
146350,-0.47050000,-0.05400000
146351,-0.47400000,-0.05650000
146352,-0.47750000,-0.04300000
146353,-0.48400000,-0.05100000
146354,-0.48750000,-0.04550000
146355,-0.49450000,-0.05650000
146356,-0.49600000,-0.04000000
146357,-0.49800000,-0.03200000
146358,-0.49450000,-0.02350000
146359,-0.48750000,-0.03750000
146360,-0.47250000,-0.01550000
146361,-0.44700000,-0.01000000
146362,-0.40750000,-0.00150000
146363,-0.35850000,-0.02100000
146364,-0.29200000,0.00050000
146365,-0.21900000,0.01150000
146366,-0.13400000,0.01150000
146367,-0.04050000,0.00350000
146368,0.05300000,0.03350000
146369,0.14100000,0.02500000
146370,0.22800000,0.02250000
146371,0.30250000,0.01400000
146372,0.36350000,0.02500000
146373,0.41450000,0.01950000
146374,0.45050000,0.00600000
146375,0.47600000,0.00850000
146376,0.48800000,0.00100000
146377,0.48950000,-0.00450000
146378,0.48250000,-0.02100000
146379,0.46900000,-0.02100000
146380,0.44700000,-0.03750000
146381,0.42150000,-0.01550000
146382,0.38900000,-0.04850000
146383,0.35350000,-0.04550000
146384,0.31800000,-0.05100000
146385,0.27550000,-0.03450000
146386,0.23100000,-0.04850000
146387,0.18850000,-0.04300000
146388,0.14100000,-0.05100000
146389,0.09200000,-0.03450000
146390,0.04250000,-0.04850000
146391,-0.00650000,-0.04300000
146392,-0.05750000,-0.05400000
146393,-0.10850000,-0.03450000
146394,-0.15600000,-0.05100000
146395,-0.20400000,-0.05650000
146396,-0.25150000,-0.03200000
146397,-0.29400000,-0.01250000
146398,-0.33300000,-0.04850000
146399,-0.37050000,-0.04300000
146400,-0.40450000,-0.02100000
146401,-0.43300000,-0.02650000
146402,-0.46200000,-0.01800000
146403,-0.48400000,-0.00450000
146404,-0.50300000,-0.02100000
146405,-0.52000000,-0.01250000
146406,-0.53350000,-0.01550000
146407,-0.54350000,-0.02350000
146408,-0.55050000,-0.02900000
146409,-0.55200000,-0.06200000
146410,-0.55400000,-0.04550000
146411,-0.55400000,-0.05400000
146412,-0.55200000,-0.04850000
146413,-0.55050000,-0.05950000
146414,-0.54350000,-0.02900000
146415,-0.54050000,-0.08150000
146416,-0.53350000,-0.06500000
146417,-0.52850000,-0.04550000
146418,-0.52500000,-0.02900000
146419,-0.52000000,0.00100000
146420,-0.51800000,-0.01000000
146421,-0.51650000,-0.09500000
146422,-0.51300000,-0.15000000
146423,-0.51500000,-0.25400000
146424,-0.51500000,-0.33600000
146425,-0.51500000,-0.37200000
146426,-0.52000000,-0.34700000
146427,-0.52150000,-0.32500000
146428,-0.52650000,-0.30350000
146429,-0.53000000,-0.34450000
146430,-0.60600000,-0.32800000
146431,-0.60950000,-0.25950000
146432,-0.61800000,-0.20750000
146433,-0.62500000,-0.14700000
146434,-0.63150000,-0.09500000
146435,-0.63850000,-0.04550000
146436,-0.64700000,-0.05400000
146437,-0.65700000,-0.03450000
146438,-0.66750000,-0.06500000
146439,-0.67750000,-0.01800000
146440,-0.68800000,-0.05950000
146441,-0.69800000,-0.02900000
146442,-0.70650000,-0.03750000
146443,-0.71200000,-0.01800000
146444,-0.71850000,-0.04550000
146445,-0.72050000,-0.00450000
146446,-0.72200000,-0.05100000
146447,-0.72050000,-0.06500000
146448,-0.71350000,-0.04000000
146449,-0.70000000,-0.02650000
146450,-0.68100000,-0.01800000
146451,-0.65200000,-0.02900000
146452,-0.60950000,-0.01000000
146453,-0.55150000,0.00350000
146454,-0.47950000,0.00600000
146455,-0.39450000,0.01700000
146456,-0.29850000,0.01700000
146457,-0.19450000,0.03050000
146458,-0.08550000,0.01950000
146459,0.02050000,0.02800000
146460,0.11950000,0.03050000
146461,0.21350000,0.01700000
146462,0.29000000,0.03350000
146463,0.35350000,0.01700000
146464,0.40100000,0.00100000
146465,0.43700000,0.00850000
146466,0.45750000,0.00850000
146467,0.46750000,-0.00700000
146468,0.46450000,-0.00450000
146469,0.45600000,0.00100000
146470,0.43350000,0.00100000
146471,0.40950000,-0.01250000
146472,0.37900000,-0.01250000
146473,0.34500000,-0.01800000
146474,0.30900000,-0.03450000
146475,0.27300000,-0.02900000
146476,0.23200000,-0.02100000
146477,0.19450000,-0.02100000
146478,0.15550000,-0.04000000
146479,0.11600000,-0.03450000
146480,0.07500000,-0.03750000
146481,0.03250000,-0.02350000
146482,-0.01000000,-0.04000000
146483,-0.05650000,-0.02900000
146484,-0.10050000,-0.03200000
146485,-0.14700000,-0.01550000
146486,-0.19100000,-0.04300000
146487,-0.23200000,-0.02100000
146488,-0.27500000,-0.01550000
146489,-0.31050000,-0.01000000
146490,-0.34500000,-0.00150000
146491,-0.37400000,-0.01250000
146492,-0.39950000,-0.02350000
146493,-0.42150000,0.00100000
146494,-0.37450000,-0.01000000
146495,-0.38750000,-0.01000000
146496,-0.40100000,-0.01000000
146497,-0.40750000,-0.01550000
146498,-0.41600000,-0.01250000
146499,-0.41800000,-0.02650000
146500,-0.41950000,-0.05650000
146501,-0.41600000,-0.06200000
146502,-0.41450000,-0.04850000
146503,-0.40750000,-0.05400000
146504,-0.40250000,-0.04000000
146505,-0.39750000,-0.05100000
146506,-0.39250000,-0.03450000
146507,-0.38950000,-0.04550000
146508,-0.39100000,0.00900000
146509,-0.38950000,0.00350000
146510,-0.39250000,-0.00150000
146511,-0.39750000,-0.06500000
146512,-0.40100000,-0.12800000
146513,-0.40450000,-0.22100000
146514,-0.40950000,-0.29000000
146515,-0.41100000,-0.33600000
146516,-0.41100000,-0.32500000
146517,-0.41450000,-0.31400000
146518,-0.41450000,-0.27350000
146519,-0.41450000,-0.29000000
146520,-0.41450000,-0.29550000
146521,-0.41250000,-0.24300000
146522,-0.41100000,-0.17450000
146523,-0.40600000,-0.13350000
146524,-0.39600000,-0.08150000
146525,-0.38750000,-0.03450000
146526,-0.37450000,-0.02900000
146527,-0.36250000,-0.02350000
146528,-0.35100000,-0.01550000
146529,-0.33900000,-0.00150000
146530,-0.33400000,-0.00450000
146531,-0.32600000,0.00600000
146532,-0.32100000,-0.01250000
146533,-0.32100000,-0.00150000
146534,-0.31900000,-0.00700000
146535,-0.31900000,-0.00150000
146536,-0.31900000,0.02500000
146537,-0.32100000,0.01700000
146538,-0.31900000,-0.00450000
146539,-0.31750000,0.04450000
146540,-0.30750000,0.00350000
146541,-0.29400000,0.01150000
146542,-0.27250000,0.03900000
146543,-0.23900000,0.02800000
146544,-0.19850000,0.00600000
146545,-0.14500000,0.03600000
146546,-0.08650000,0.03900000
146547,-0.02150000,0.05000000
146548,0.04700000,0.05800000
146549,0.11400000,0.08300000
146550,0.17750000,0.10500000
146551,0.23250000,0.08300000
146552,0.28300000,0.12150000
146553,0.32450000,0.09650000
146554,0.35650000,0.03900000
146555,0.38150000,0.02500000
146556,0.39650000,0.03600000
146557,0.40500000,0.01150000
146558,0.39800000,0.01950000
146559,0.39300000,0.00850000
146560,0.38150000,0.06650000
146561,0.36450000,0.00900000
146562,0.34100000,-0.01250000
146563,0.31750000,-0.00450000
146564,0.28750000,-0.00700000
146565,0.25600000,0.00100000
146566,0.22100000,-0.01550000
146567,0.18550000,-0.02100000
146568,0.14550000,0.01150000
146569,0.10550000,-0.02900000
146570,0.06550000,-0.00450000
146571,0.02200000,-0.00450000
146572,-0.02000000,-0.01550000
146573,-0.06200000,-0.02100000
146574,-0.10350000,-0.04000000
146575,-0.14200000,-0.03200000
146576,-0.17900000,-0.01800000
146577,-0.21250000,0.00100000
146578,-0.24250000,-0.00700000
146579,-0.26600000,-0.01000000
146580,-0.28600000,0.00900000
146581,-0.30100000,0.03050000
146582,-0.31250000,0.02250000
146583,-0.31750000,0.00600000
146584,-0.32100000,-0.01000000
146585,-0.32250000,0.01400000
146586,-0.32100000,0.00100000
146587,-0.31600000,0.00100000
146588,-0.31100000,-0.02100000
146589,-0.30250000,-0.01250000
146590,-0.29400000,-0.01550000
146591,-0.28750000,-0.01250000
146592,-0.27750000,-0.03450000
146593,-0.26900000,-0.01800000
146594,-0.25900000,-0.02350000
146595,-0.25050000,-0.02100000
146596,-0.24050000,0.00100000
146597,-0.23050000,-0.02650000
146598,-0.22400000,-0.02350000
146599,-0.21400000,0.00900000
146600,-0.20550000,0.01400000
146601,-0.20050000,-0.03200000
146602,-0.19400000,-0.10050000
146603,-0.19050000,-0.16900000
146604,-0.19050000,-0.25150000
146605,-0.19050000,-0.31950000
146606,-0.19400000,-0.32500000
146607,-0.19700000,-0.27600000
146608,-0.20200000,-0.25400000
146609,-0.21050000,-0.29550000
146610,-0.21550000,-0.28450000
146611,-0.22550000,-0.25400000
146612,-0.23400000,-0.20450000
146613,-0.24550000,-0.14150000
146614,-0.25550000,-0.08400000
146615,-0.26400000,-0.06500000
146616,-0.27100000,-0.02900000
146617,-0.27900000,-0.02900000
146618,-0.28900000,-0.01800000
146619,-0.29400000,-0.02350000
146620,-0.30250000,-0.01800000
146621,-0.30900000,-0.01000000
146622,-0.30800000,-0.00450000
146623,-0.32100000,0.00050000
146624,-0.33100000,0.00050000
146625,-0.34200000,0.00050000
146626,-0.35350000,-0.00450000
146627,-0.36300000,-0.00700000
146628,-0.37300000,-0.01800000
146629,-0.37950000,-0.01250000
146630,-0.37950000,-0.00450000
146631,-0.36950000,0.00100000
146632,-0.35200000,-0.00450000
146633,-0.32250000,0.00100000
146634,-0.28550000,0.00900000
146635,-0.23500000,0.02800000
146636,-0.17500000,0.02250000
146637,-0.10850000,0.04450000
146638,-0.03900000,0.04700000
146639,0.03400000,0.07450000
146640,0.10700000,0.07200000
146641,0.17350000,0.09100000
146642,0.23350000,0.07450000
146643,0.28700000,0.06100000
146644,0.32900000,0.04450000
146645,0.36300000,0.04450000
146646,0.38750000,0.03350000
146647,0.40200000,0.03350000
146648,0.41000000,0.02800000
146649,0.40850000,0.02500000
146650,0.40200000,0.01700000
146651,0.38750000,0.00600000
146652,0.36950000,0.00850000
146653,0.34700000,0.00100000
146654,0.32100000,0.00850000
146655,0.29000000,0.01150000
146656,0.25750000,0.01400000
146657,0.22500000,0.00350000
146658,0.18800000,0.01700000
146659,0.14900000,0.00100000
146660,0.11150000,0.00350000
